# tiefe der essung in mm | FrequenzDiff in Hz |intensity
   30 195   620
30.75 220  1630
 31.5 317  4963
32.25 342  8108
   33 452 12530
33.75 513 15086
 34.5 574 16808
35.25 586 17837
   36 525 18702
36.75 476 20937
 37.5 405 21404
38.25 391 20837
   39 391 21128
39.75 427 22707
 40.5 470 18264
41.25 452 16082

